LabVIEW Measurement	
Writer_Version	2
Reader_Version	2
Separator	Tab
Decimal_Separator	.
Multi_Headings	No
X_Columns	One
Time_Pref	Absolute
Operator	AVEREEN
Date	2021/05/03
Time	15:16:42.3660759925842285156
***End_of_Header***	
	
Channels	1	
Samples	2707	
Date	2021/05/03	
Time	15:16:42.3660759925842285156	
X_Dimension	Time	
X0	0.0000000000000000E+0	
Delta_X	0.021264	
***End_of_Header***		
X_Value	Untitled	Comment
0.000000	2.127301E-10
0.021264	2.127355E-10
0.042529	2.127355E-10
0.063793	2.127227E-10
0.085058	2.127227E-10
0.106322	2.127227E-10
0.127587	2.127369E-10
0.148851	2.127369E-10
0.170115	2.127267E-10
0.191380	2.127267E-10
0.212644	2.127267E-10
0.233909	2.127274E-10
0.255173	2.127274E-10
0.276438	2.127275E-10
0.297702	2.127275E-10
0.318967	2.127275E-10
0.340231	2.127255E-10
0.361495	2.127255E-10
0.382760	2.127239E-10
0.404024	2.127239E-10
0.425289	2.127239E-10
0.446553	2.127312E-10
0.467818	2.127312E-10
0.489082	2.127237E-10
0.510346	2.127237E-10
0.531611	2.127237E-10
0.552875	2.127268E-10
0.574140	2.127268E-10
0.595404	2.127296E-10
0.616669	2.127296E-10
0.637933	2.127296E-10
0.659197	2.127282E-10
0.680462	2.127282E-10
0.701726	2.127295E-10
0.722991	2.127295E-10
0.744255	2.127295E-10
0.765520	2.127272E-10
0.786784	2.127272E-10
0.808048	2.127291E-10
0.829313	2.127291E-10
0.850577	2.127291E-10
0.871842	2.127305E-10
0.893106	2.127305E-10
0.914371	2.127326E-10
0.935635	2.127326E-10
0.956900	2.127326E-10
0.978164	2.127341E-10
0.999428	2.127341E-10
1.020693	2.127280E-10
1.041957	2.127280E-10
1.063222	2.127280E-10
1.084486	2.127386E-10
1.105751	2.127386E-10
1.127015	2.127320E-10
1.148279	2.127320E-10
1.169544	2.127320E-10
1.190808	2.127353E-10
1.212073	2.127353E-10
1.233337	2.127262E-10
1.254602	2.127262E-10
1.275866	2.127262E-10
1.297130	2.127295E-10
1.318395	2.127295E-10
1.339659	2.127275E-10
1.360924	2.127275E-10
1.382188	2.127275E-10
1.403453	2.127263E-10
1.424717	2.127263E-10
1.445982	2.127333E-10
1.467246	2.127333E-10
1.488510	2.127333E-10
1.509775	2.127356E-10
1.531039	2.127356E-10
1.552304	2.127270E-10
1.573568	2.127270E-10
1.594833	2.127270E-10
1.616097	2.127193E-10
1.637361	2.127193E-10
1.658626	2.127193E-10
1.679890	2.127227E-10
1.701155	2.127227E-10
1.722419	2.127227E-10
1.743684	2.127316E-10
1.764948	2.127316E-10
1.786212	2.127316E-10
1.807477	2.127335E-10
1.828741	2.127335E-10
1.850006	2.127331E-10
1.871270	2.127331E-10
1.892535	2.127331E-10
1.913799	2.127394E-10
1.935064	2.127394E-10
1.956328	2.127379E-10
1.977592	2.127379E-10
1.998857	2.127379E-10
2.020121	2.127253E-10
2.041386	2.127253E-10
2.062650	2.127305E-10
2.083915	2.127305E-10
2.105179	2.127305E-10
2.126443	2.127260E-10
2.147708	2.127260E-10
2.168972	2.127250E-10
2.190237	2.127250E-10
2.211501	2.127263E-10
2.232766	2.127263E-10
2.254030	2.127263E-10
2.275294	2.127262E-10
2.296559	2.127262E-10
2.317823	2.127262E-10
2.339088	2.127277E-10
2.360352	2.127277E-10
2.381617	2.127287E-10
2.402881	2.127287E-10
2.424145	2.127287E-10
2.445410	2.127343E-10
2.466674	2.127343E-10
2.487939	2.127222E-10
2.509203	2.127222E-10
2.530468	2.127301E-10
2.551732	2.127301E-10
2.572997	2.127301E-10
2.594261	2.127260E-10
2.615525	2.127260E-10
2.636790	2.127273E-10
2.658054	2.127273E-10
2.679319	2.127273E-10
2.700583	2.127309E-10
2.721848	2.127309E-10
2.743112	2.127309E-10
2.764376	2.127308E-10
2.785641	2.127308E-10
2.806905	2.127265E-10
2.828170	2.127265E-10
2.849434	2.127265E-10
2.870699	2.127291E-10
2.891963	2.127291E-10
2.913227	2.127287E-10
2.934492	2.127287E-10
2.955756	2.127287E-10
2.977021	2.127263E-10
2.998285	2.127263E-10
3.019550	2.127291E-10
3.040814	2.127291E-10
3.062079	2.127291E-10
3.083343	2.127337E-10
3.104607	2.127337E-10
3.125872	2.127336E-10
3.147136	2.127336E-10
3.168401	2.127336E-10
3.189665	2.127348E-10
3.210930	2.127348E-10
3.232194	2.127384E-10
3.253458	2.127384E-10
3.274723	2.127384E-10
3.295987	2.127267E-10
3.317252	2.127267E-10
3.338516	2.127317E-10
3.359781	2.127317E-10
3.381045	2.127282E-10
3.402309	2.127282E-10
3.423574	2.127282E-10
3.444838	2.127291E-10
3.466103	2.127291E-10
3.487367	2.127349E-10
3.508632	2.127349E-10
3.529896	2.127349E-10
3.551161	2.127218E-10
3.572425	2.127218E-10
3.593689	2.127218E-10
3.614954	2.127218E-10
3.636218	2.127292E-10
3.657483	2.127292E-10
3.678747	2.127335E-10
3.700012	2.127335E-10
3.721276	2.127335E-10
3.742540	2.127260E-10
3.763805	2.127260E-10
3.785069	2.127294E-10
3.806334	2.127294E-10
3.827598	2.127294E-10
3.848863	2.127293E-10
3.870127	2.127293E-10
3.891391	2.127316E-10
3.912656	2.127316E-10
3.933920	2.127316E-10
3.955185	2.127360E-10
3.976449	2.127360E-10
3.997714	2.127324E-10
4.018978	2.127324E-10
4.040242	2.127324E-10
4.061507	2.127312E-10
4.082771	2.127312E-10
4.104036	2.127213E-10
4.125300	2.127213E-10
4.146565	2.127213E-10
4.167829	2.127214E-10
4.189094	2.127214E-10
4.210358	2.127280E-10
4.231622	2.127280E-10
4.252887	2.127280E-10
4.274151	2.127251E-10
4.295416	2.127251E-10
4.316680	2.127244E-10
4.337945	2.127244E-10
4.359209	2.127244E-10
4.380473	2.127306E-10
4.401738	2.127306E-10
4.423002	2.127258E-10
4.444267	2.127258E-10
4.465531	2.127258E-10
4.486796	2.127293E-10
4.508060	2.127293E-10
4.529324	2.127225E-10
4.550589	2.127225E-10
4.571853	2.127225E-10
4.593118	2.127243E-10
4.614382	2.127243E-10
4.635647	2.127259E-10
4.656911	2.127259E-10
4.678176	2.127358E-10
4.699440	2.127358E-10
4.720704	2.127358E-10
4.741969	2.127290E-10
4.763233	2.127290E-10
4.784498	2.127339E-10
4.805762	2.127339E-10
4.827027	2.127339E-10
4.848291	2.127345E-10
4.869555	2.127345E-10
4.890820	2.127299E-10
4.912084	2.127299E-10
4.933349	2.127299E-10
4.954613	2.127233E-10
4.975878	2.127233E-10
4.997142	2.127297E-10
5.018406	2.127297E-10
5.039671	2.127297E-10
5.060935	2.127279E-10
5.082200	2.127279E-10
5.103464	2.127323E-10
5.124729	2.127323E-10
5.145993	2.127323E-10
5.167258	2.127324E-10
5.188522	2.127324E-10
5.209786	2.127324E-10
5.231051	2.127306E-10
5.252315	2.127306E-10
5.273580	2.127306E-10
5.294844	2.127320E-10
5.316109	2.127320E-10
5.337373	2.127320E-10
5.358637	2.127270E-10
5.379902	2.127270E-10
5.401166	2.127274E-10
5.422431	2.127274E-10
5.443695	2.127274E-10
5.464960	2.127297E-10
5.486224	2.127297E-10
5.507488	2.127302E-10
5.528753	2.127302E-10
5.550017	2.127302E-10
5.571282	2.127331E-10
5.592546	2.127331E-10
5.613811	2.127345E-10
5.635075	2.127345E-10
5.656339	2.127345E-10
5.677604	2.127375E-10
5.698868	2.127375E-10
5.720133	2.127299E-10
5.741397	2.127299E-10
5.762662	2.127236E-10
5.783926	2.127236E-10
5.805191	2.127236E-10
5.826455	2.127277E-10
5.847719	2.127277E-10
5.868984	2.127246E-10
5.890248	2.127246E-10
5.911513	2.127246E-10
5.932777	2.127338E-10
5.954042	2.127338E-10
5.975306	2.127290E-10
5.996570	2.127290E-10
6.017835	2.127290E-10
6.039099	2.127252E-10
6.060364	2.127252E-10
6.081628	2.127281E-10
6.102893	2.127281E-10
6.124157	2.127281E-10
6.145421	2.127290E-10
6.166686	2.127290E-10
6.187950	2.127277E-10
6.209215	2.127277E-10
6.230479	2.127277E-10
6.251744	2.127250E-10
6.273008	2.127250E-10
6.294273	2.127242E-10
6.315537	2.127242E-10
6.336801	2.127258E-10
6.358066	2.127258E-10
6.379330	2.127258E-10
6.400595	2.127292E-10
6.421859	2.127292E-10
6.443124	2.127277E-10
6.464388	2.127277E-10
6.485652	2.127277E-10
6.506917	2.127253E-10
6.528181	2.127253E-10
6.549446	2.127262E-10
6.570710	2.127262E-10
6.591975	2.127262E-10
6.613239	2.127303E-10
6.634503	2.127303E-10
6.655768	2.127299E-10
6.677032	2.127299E-10
6.698297	2.127299E-10
6.719561	2.127299E-10
6.740826	2.127299E-10
6.762090	2.127378E-10
6.783354	2.127378E-10
6.804619	2.127378E-10
6.825883	2.127300E-10
6.847148	2.127300E-10
6.868412	2.127300E-10
6.889677	2.127413E-10
6.910941	2.127413E-10
6.932206	2.127413E-10
6.953470	2.127266E-10
6.974734	2.127266E-10
6.995999	2.127266E-10
7.017263	2.127223E-10
7.038528	2.127223E-10
7.059792	2.127311E-10
7.081057	2.127311E-10
7.102321	2.127311E-10
7.123585	2.127315E-10
7.144850	2.127315E-10
7.166114	2.127286E-10
7.187379	2.127286E-10
7.208643	2.127309E-10
7.229908	2.127309E-10
7.251172	2.127309E-10
7.272436	2.127266E-10
7.293701	2.127266E-10
7.314965	2.127295E-10
7.336230	2.127295E-10
7.357494	2.127295E-10
7.378759	2.127315E-10
7.400023	2.127315E-10
7.421288	2.127357E-10
7.442552	2.127357E-10
7.463816	2.127357E-10
7.485081	2.127252E-10
7.506345	2.127252E-10
7.527610	2.127282E-10
7.548874	2.127282E-10
7.570139	2.127282E-10
7.591403	2.127302E-10
7.612667	2.127302E-10
7.633932	2.127309E-10
7.655196	2.127309E-10
7.676461	2.127309E-10
7.697725	2.127316E-10
7.718990	2.127316E-10
7.740254	2.127377E-10
7.761518	2.127377E-10
7.782783	2.127377E-10
7.804047	2.127285E-10
7.825312	2.127285E-10
7.846576	2.127305E-10
7.867841	2.127305E-10
7.889105	2.127305E-10
7.910370	2.127257E-10
7.931634	2.127257E-10
7.952898	2.127322E-10
7.974163	2.127322E-10
7.995427	2.127322E-10
8.016692	2.127258E-10
8.037956	2.127258E-10
8.059221	2.127260E-10
8.080485	2.127260E-10
8.101749	2.127260E-10
8.123014	2.127285E-10
8.144278	2.127285E-10
8.165543	2.127283E-10
8.186807	2.127283E-10
8.208072	2.127293E-10
8.229336	2.127293E-10
8.250600	2.127293E-10
8.271865	2.127260E-10
8.293129	2.127260E-10
8.314394	2.127200E-10
8.335658	2.127200E-10
8.356923	2.127200E-10
8.378187	2.127293E-10
8.399451	2.127293E-10
8.420716	2.127251E-10
8.441980	2.127251E-10
8.463245	2.127251E-10
8.484509	2.127288E-10
8.505774	2.127288E-10
8.527038	2.127273E-10
8.548303	2.127273E-10
8.569567	2.127273E-10
8.590831	2.127351E-10
8.612096	2.127351E-10
8.633360	2.127351E-10
8.654625	2.127262E-10
8.675889	2.127262E-10
8.697154	2.127328E-10
8.718418	2.127328E-10
8.739682	2.127328E-10
8.760947	2.127292E-10
8.782211	2.127292E-10
8.803476	2.127292E-10
8.824740	2.127324E-10
8.846005	2.127324E-10
8.867269	2.127324E-10
8.888533	2.127326E-10
8.909798	2.127326E-10
8.931062	2.127289E-10
8.952327	2.127289E-10
8.973591	2.127289E-10
8.994856	2.127264E-10
9.016120	2.127264E-10
9.037385	2.127228E-10
9.058649	2.127228E-10
9.079913	2.127228E-10
9.101178	2.127216E-10
9.122442	2.127216E-10
9.143707	2.127339E-10
9.164971	2.127339E-10
9.186236	2.127339E-10
9.207500	2.127356E-10
9.228764	2.127356E-10
9.250029	2.127221E-10
9.271293	2.127221E-10
9.292558	2.127332E-10
9.313822	2.127332E-10
9.335087	2.127332E-10
9.356351	2.127308E-10
9.377615	2.127308E-10
9.398880	2.127365E-10
9.420144	2.127365E-10
9.441409	2.127365E-10
9.462673	2.127323E-10
9.483938	2.127323E-10
9.505202	2.127287E-10
9.526467	2.127287E-10
9.547731	2.127287E-10
9.568995	2.127280E-10
9.590260	2.127280E-10
9.611524	2.127280E-10
9.632789	2.127361E-10
9.654053	2.127361E-10
9.675318	2.127344E-10
9.696582	2.127344E-10
9.717846	2.127344E-10
9.739111	2.127284E-10
9.760375	2.127284E-10
9.781640	2.127319E-10
9.802904	2.127319E-10
9.824169	2.127319E-10
9.845433	2.127289E-10
9.866697	2.127289E-10
9.887962	2.127239E-10
9.909226	2.127239E-10
9.930491	2.127239E-10
9.951755	2.127250E-10
9.973020	2.127250E-10
9.994284	2.127283E-10
10.015548	2.127283E-10
10.036813	2.127283E-10
10.058077	2.127261E-10
10.079342	2.127261E-10
10.100606	2.127331E-10
10.121871	2.127331E-10
10.143135	2.127331E-10
10.164400	2.127265E-10
10.185664	2.127265E-10
10.206928	2.127260E-10
10.228193	2.127260E-10
10.249457	2.127260E-10
10.270722	2.127234E-10
10.291986	2.127234E-10
10.313251	2.127287E-10
10.334515	2.127287E-10
10.355779	2.127287E-10
10.377044	2.127230E-10
10.398308	2.127230E-10
10.419573	2.127219E-10
10.440837	2.127219E-10
10.462102	2.127219E-10
10.483366	2.127332E-10
10.504630	2.127332E-10
10.525895	2.127265E-10
10.547159	2.127265E-10
10.568424	2.127265E-10
10.589688	2.127311E-10
10.610953	2.127311E-10
10.632217	2.127332E-10
10.653482	2.127332E-10
10.674746	2.127332E-10
10.696010	2.127332E-10
10.717275	2.127258E-10
10.738539	2.127258E-10
10.759804	2.127237E-10
10.781068	2.127237E-10
10.802333	2.127237E-10
10.823597	2.127266E-10
10.844861	2.127266E-10
10.866126	2.127259E-10
10.887390	2.127259E-10
10.908655	2.127259E-10
10.929919	2.127285E-10
10.951184	2.127285E-10
10.972448	2.127307E-10
10.993712	2.127307E-10
11.014977	2.127307E-10
11.036241	2.127315E-10
11.057506	2.127315E-10
11.078770	2.127184E-10
11.100035	2.127184E-10
11.121299	2.127184E-10
11.142564	2.127319E-10
11.163828	2.127319E-10
11.185092	2.127213E-10
11.206357	2.127213E-10
11.227621	2.127213E-10
11.248886	2.127250E-10
11.270150	2.127250E-10
11.291415	2.127277E-10
11.312679	2.127277E-10
11.333943	2.127277E-10
11.355208	2.127208E-10
11.376472	2.127208E-10
11.397737	2.127208E-10
11.419001	2.127329E-10
11.440266	2.127329E-10
11.461530	2.127298E-10
11.482794	2.127298E-10
11.504059	2.127305E-10
11.525323	2.127305E-10
11.546588	2.127305E-10
11.567852	2.127278E-10
11.589117	2.127278E-10
11.610381	2.127313E-10
11.631645	2.127313E-10
11.652910	2.127313E-10
11.674174	2.127325E-10
11.695439	2.127325E-10
11.716703	2.127332E-10
11.737968	2.127332E-10
11.759232	2.127332E-10
11.780497	2.127359E-10
11.801761	2.127359E-10
11.823025	2.127313E-10
11.844290	2.127313E-10
11.865554	2.127313E-10
11.886819	2.127358E-10
11.908083	2.127358E-10
11.929348	2.127304E-10
11.950612	2.127304E-10
11.971876	2.127304E-10
11.993141	2.127223E-10
12.014405	2.127223E-10
12.035670	2.127313E-10
12.056934	2.127313E-10
12.078199	2.127313E-10
12.099463	2.127299E-10
12.120727	2.127299E-10
12.141992	2.127291E-10
12.163256	2.127291E-10
12.184521	2.127294E-10
12.205785	2.127294E-10
12.227050	2.127294E-10
12.248314	2.127195E-10
12.269579	2.127195E-10
12.290843	2.127195E-10
12.312107	2.127303E-10
12.333372	2.127303E-10
12.354636	2.127203E-10
12.375901	2.127203E-10
12.397165	2.127317E-10
12.418430	2.127317E-10
12.439694	2.127317E-10
12.460958	2.127227E-10
12.482223	2.127227E-10
12.503487	2.127231E-10
12.524752	2.127231E-10
12.546016	2.127231E-10
12.567281	2.127231E-10
12.588545	2.127357E-10
12.609809	2.127357E-10
12.631074	2.127307E-10
12.652338	2.127307E-10
12.673603	2.127307E-10
12.694867	2.127339E-10
12.716132	2.127339E-10
12.737396	2.127339E-10
12.758661	2.127339E-10
12.779925	2.127339E-10
12.801189	2.127196E-10
12.822454	2.127196E-10
12.843718	2.127226E-10
12.864983	2.127226E-10
12.886247	2.127226E-10
12.907512	2.127296E-10
12.928776	2.127296E-10
12.950040	2.127219E-10
12.971305	2.127219E-10
12.992569	2.127219E-10
13.013834	2.127232E-10
13.035098	2.127232E-10
13.056363	2.127266E-10
13.077627	2.127266E-10
13.098891	2.127266E-10
13.120156	2.127273E-10
13.141420	2.127273E-10
13.162685	2.127238E-10
13.183949	2.127238E-10
13.205214	2.127238E-10
13.226478	2.127240E-10
13.247742	2.127240E-10
13.269007	2.127243E-10
13.290271	2.127243E-10
13.311536	2.127243E-10
13.332800	2.127298E-10
13.354065	2.127298E-10
13.375329	2.127291E-10
13.396594	2.127291E-10
13.417858	2.127283E-10
13.439122	2.127283E-10
13.460387	2.127283E-10
13.481651	2.127283E-10
13.502916	2.127283E-10
13.524180	2.127304E-10
13.545445	2.127304E-10
13.566709	2.127304E-10
13.587973	2.127333E-10
13.609238	2.127333E-10
13.630502	2.127314E-10
13.651767	2.127314E-10
13.673031	2.127314E-10
13.694296	2.127314E-10
13.715560	2.127314E-10
13.736824	2.127313E-10
13.758089	2.127313E-10
13.779353	2.127313E-10
13.800618	2.127286E-10
13.821882	2.127286E-10
13.843147	2.127389E-10
13.864411	2.127389E-10
13.885676	2.127389E-10
13.906940	2.127302E-10
13.928204	2.127302E-10
13.949469	2.127288E-10
13.970733	2.127288E-10
13.991998	2.127288E-10
14.013262	2.127282E-10
14.034527	2.127282E-10
14.055791	2.127245E-10
14.077055	2.127245E-10
14.098320	2.127245E-10
14.119584	2.127323E-10
14.140849	2.127323E-10
14.162113	2.127324E-10
14.183378	2.127324E-10
14.204642	2.127324E-10
14.225906	2.127324E-10
14.247171	2.127333E-10
14.268435	2.127333E-10
14.289700	2.127316E-10
14.310964	2.127316E-10
14.332229	2.127316E-10
14.353493	2.127343E-10
14.374757	2.127343E-10
14.396022	2.127316E-10
14.417286	2.127316E-10
14.438551	2.127316E-10
14.459815	2.127358E-10
14.481080	2.127358E-10
14.502344	2.127293E-10
14.523609	2.127293E-10
14.544873	2.127293E-10
14.566137	2.127286E-10
14.587402	2.127286E-10
14.608666	2.127308E-10
14.629931	2.127308E-10
14.651195	2.127308E-10
14.672460	2.127339E-10
14.693724	2.127339E-10
14.714988	2.127352E-10
14.736253	2.127352E-10
14.757517	2.127352E-10
14.778782	2.127314E-10
14.800046	2.127314E-10
14.821311	2.127275E-10
14.842575	2.127275E-10
14.863839	2.127275E-10
14.885104	2.127270E-10
14.906368	2.127270E-10
14.927633	2.127254E-10
14.948897	2.127254E-10
14.970162	2.127254E-10
14.991426	2.127261E-10
15.012691	2.127261E-10
15.033955	2.127235E-10
15.055219	2.127235E-10
15.076484	2.127235E-10
15.097748	2.127270E-10
15.119013	2.127270E-10
15.140277	2.127289E-10
15.161542	2.127289E-10
15.182806	2.127289E-10
15.204070	2.127264E-10
15.225335	2.127264E-10
15.246599	2.127262E-10
15.267864	2.127262E-10
15.289128	2.127262E-10
15.310393	2.127258E-10
15.331657	2.127258E-10
15.352921	2.127193E-10
15.374186	2.127193E-10
15.395450	2.127193E-10
15.416715	2.127255E-10
15.437979	2.127255E-10
15.459244	2.127304E-10
15.480508	2.127304E-10
15.501773	2.127304E-10
15.523037	2.127286E-10
15.544301	2.127286E-10
15.565566	2.127349E-10
15.586830	2.127349E-10
15.608095	2.127349E-10
15.629359	2.127308E-10
15.650624	2.127308E-10
15.671888	2.127322E-10
15.693152	2.127322E-10
15.714417	2.127322E-10
15.735681	2.127252E-10
15.756946	2.127252E-10
15.778210	2.127316E-10
15.799475	2.127316E-10
15.820739	2.127316E-10
15.842003	2.127267E-10
15.863268	2.127267E-10
15.884532	2.127267E-10
15.905797	2.127267E-10
15.927061	2.127265E-10
15.948326	2.127265E-10
15.969590	2.127295E-10
15.990854	2.127295E-10
16.012119	2.127295E-10
16.033383	2.127287E-10
16.054648	2.127287E-10
16.075912	2.127213E-10
16.097177	2.127213E-10
16.118441	2.127314E-10
16.139706	2.127314E-10
16.160970	2.127314E-10
16.182234	2.127297E-10
16.203499	2.127297E-10
16.224763	2.127214E-10
16.246028	2.127214E-10
16.267292	2.127214E-10
16.288557	2.127278E-10
16.309821	2.127278E-10
16.331085	2.127340E-10
16.352350	2.127340E-10
16.373614	2.127340E-10
16.394879	2.127377E-10
16.416143	2.127377E-10
16.437408	2.127316E-10
16.458672	2.127316E-10
16.479936	2.127316E-10
16.501201	2.127263E-10
16.522465	2.127263E-10
16.543730	2.127332E-10
16.564994	2.127332E-10
16.586259	2.127332E-10
16.607523	2.127312E-10
16.628788	2.127312E-10
16.650052	2.127278E-10
16.671316	2.127278E-10
16.692581	2.127278E-10
16.713845	2.127321E-10
16.735110	2.127321E-10
16.756374	2.127316E-10
16.777639	2.127316E-10
16.798903	2.127316E-10
16.820167	2.127328E-10
16.841432	2.127328E-10
16.862696	2.127296E-10
16.883961	2.127296E-10
16.905225	2.127296E-10
16.926490	2.127278E-10
16.947754	2.127278E-10
16.969018	2.127299E-10
16.990283	2.127299E-10
17.011547	2.127299E-10
17.032812	2.127298E-10
17.054076	2.127298E-10
17.075341	2.127217E-10
17.096605	2.127217E-10
17.117870	2.127217E-10
17.139134	2.127279E-10
17.160398	2.127279E-10
17.181663	2.127240E-10
17.202927	2.127240E-10
17.224192	2.127240E-10
17.245456	2.127248E-10
17.266721	2.127248E-10
17.287985	2.127311E-10
17.309249	2.127311E-10
17.330514	2.127311E-10
17.351778	2.127321E-10
17.373043	2.127321E-10
17.394307	2.127232E-10
17.415572	2.127232E-10
17.436836	2.127232E-10
17.458100	2.127283E-10
17.479365	2.127283E-10
17.500629	2.127260E-10
17.521894	2.127260E-10
17.543158	2.127260E-10
17.564423	2.127273E-10
17.585687	2.127273E-10
17.606951	2.127266E-10
17.628216	2.127266E-10
17.649480	2.127266E-10
17.670745	2.127273E-10
17.692009	2.127273E-10
17.713274	2.127351E-10
17.734538	2.127351E-10
17.755803	2.127351E-10
17.777067	2.127351E-10
17.798331	2.127256E-10
17.819596	2.127256E-10
17.840860	2.127341E-10
17.862125	2.127341E-10
17.883389	2.127341E-10
17.904654	2.127261E-10
17.925918	2.127261E-10
17.947182	2.127286E-10
17.968447	2.127286E-10
17.989711	2.127286E-10
18.010976	2.127285E-10
18.032240	2.127285E-10
18.053505	2.127260E-10
18.074769	2.127260E-10
18.096033	2.127260E-10
18.117298	2.127268E-10
18.138562	2.127268E-10
18.159827	2.127301E-10
18.181091	2.127301E-10
18.202356	2.127301E-10
18.223620	2.127249E-10
18.244885	2.127249E-10
18.266149	2.127280E-10
18.287413	2.127280E-10
18.308678	2.127280E-10
18.329942	2.127295E-10
18.351207	2.127295E-10
18.372471	2.127274E-10
18.393736	2.127274E-10
18.415000	2.127261E-10
18.436264	2.127261E-10
18.457529	2.127291E-10
18.478793	2.127291E-10
18.500058	2.127291E-10
18.521322	2.127249E-10
18.542587	2.127249E-10
18.563851	2.127282E-10
18.585115	2.127282E-10
18.606380	2.127282E-10
18.627644	2.127304E-10
18.648909	2.127304E-10
18.670173	2.127304E-10
18.691438	2.127302E-10
18.712702	2.127302E-10
18.733967	2.127311E-10
18.755231	2.127311E-10
18.776495	2.127311E-10
18.797760	2.127285E-10
18.819024	2.127285E-10
18.840289	2.127278E-10
18.861553	2.127278E-10
18.882818	2.127278E-10
18.904082	2.127309E-10
18.925346	2.127309E-10
18.946611	2.127321E-10
18.967875	2.127321E-10
18.989140	2.127321E-10
19.010404	2.127301E-10
19.031669	2.127301E-10
19.052933	2.127348E-10
19.074197	2.127348E-10
19.095462	2.127348E-10
19.116726	2.127292E-10
19.137991	2.127292E-10
19.159255	2.127276E-10
19.180520	2.127276E-10
19.201784	2.127296E-10
19.223048	2.127296E-10
19.244313	2.127296E-10
19.265577	2.127249E-10
19.286842	2.127249E-10
19.308106	2.127299E-10
19.329371	2.127299E-10
19.350635	2.127299E-10
19.371900	2.127328E-10
19.393164	2.127328E-10
19.414428	2.127284E-10
19.435693	2.127284E-10
19.456957	2.127284E-10
19.478222	2.127317E-10
19.499486	2.127317E-10
19.520751	2.127274E-10
19.542015	2.127274E-10
19.563279	2.127274E-10
19.584544	2.127329E-10
19.605808	2.127329E-10
19.627073	2.127329E-10
19.648337	2.127268E-10
19.669602	2.127268E-10
19.690866	2.127312E-10
19.712130	2.127312E-10
19.733395	2.127312E-10
19.754659	2.127310E-10
19.775924	2.127310E-10
19.797188	2.127305E-10
19.818453	2.127305E-10
19.839717	2.127305E-10
19.860982	2.127335E-10
19.882246	2.127335E-10
19.903510	2.127376E-10
19.924775	2.127376E-10
19.946039	2.127376E-10
19.967304	2.127273E-10
19.988568	2.127273E-10
20.009833	2.127298E-10
20.031097	2.127298E-10
20.052361	2.127298E-10
20.073626	2.127287E-10
20.094890	2.127287E-10
20.116155	2.127284E-10
20.137419	2.127284E-10
20.158684	2.127284E-10
20.179948	2.127394E-10
20.201212	2.127394E-10
20.222477	2.127317E-10
20.243741	2.127317E-10
20.265006	2.127317E-10
20.286270	2.127283E-10
20.307535	2.127283E-10
20.328799	2.127276E-10
20.350063	2.127276E-10
20.371328	2.127276E-10
20.392592	2.127286E-10
20.413857	2.127286E-10
20.435121	2.127267E-10
20.456386	2.127267E-10
20.477650	2.127267E-10
20.498915	2.127321E-10
20.520179	2.127321E-10
20.541443	2.127203E-10
20.562708	2.127203E-10
20.583972	2.127203E-10
20.605237	2.127229E-10
20.626501	2.127229E-10
20.647766	2.127267E-10
20.669030	2.127267E-10
20.690294	2.127267E-10
20.711559	2.127286E-10
20.732823	2.127286E-10
20.754088	2.127278E-10
20.775352	2.127278E-10
20.796617	2.127278E-10
20.817881	2.127266E-10
20.839145	2.127266E-10
20.860410	2.127277E-10
20.881674	2.127277E-10
20.902939	2.127277E-10
20.924203	2.127218E-10
20.945468	2.127218E-10
20.966732	2.127269E-10
20.987997	2.127269E-10
21.009261	2.127296E-10
21.030525	2.127296E-10
21.051790	2.127296E-10
21.073054	2.127326E-10
21.094319	2.127326E-10
21.115583	2.127326E-10
21.136848	2.127310E-10
21.158112	2.127310E-10
21.179376	2.127353E-10
21.200641	2.127353E-10
21.221905	2.127335E-10
21.243170	2.127335E-10
21.264434	2.127335E-10
21.285699	2.127232E-10
21.306963	2.127232E-10
21.328227	2.127232E-10
21.349492	2.127304E-10
21.370756	2.127304E-10
21.392021	2.127258E-10
21.413285	2.127258E-10
21.434550	2.127258E-10
21.455814	2.127272E-10
21.477079	2.127272E-10
21.498343	2.127272E-10
21.519607	2.127308E-10
21.540872	2.127308E-10
21.562136	2.127308E-10
21.583401	2.127188E-10
21.604665	2.127188E-10
21.625930	2.127244E-10
21.647194	2.127244E-10
21.668458	2.127244E-10
21.689723	2.127294E-10
21.710987	2.127294E-10
21.732252	2.127239E-10
21.753516	2.127239E-10
21.774781	2.127239E-10
21.796045	2.127232E-10
21.817309	2.127232E-10
21.838574	2.127250E-10
21.859838	2.127250E-10
21.881103	2.127250E-10
21.902367	2.127256E-10
21.923632	2.127256E-10
21.944896	2.127319E-10
21.966160	2.127319E-10
21.987425	2.127316E-10
22.008689	2.127316E-10
22.029954	2.127316E-10
22.051218	2.127303E-10
22.072483	2.127303E-10
22.093747	2.127330E-10
22.115012	2.127330E-10
22.136276	2.127330E-10
22.157540	2.127291E-10
22.178805	2.127291E-10
22.200069	2.127291E-10
22.221334	2.127334E-10
22.242598	2.127334E-10
22.263863	2.127331E-10
22.285127	2.127331E-10
22.306391	2.127331E-10
22.327656	2.127210E-10
22.348920	2.127210E-10
22.370185	2.127313E-10
22.391449	2.127313E-10
22.412714	2.127313E-10
22.433978	2.127372E-10
22.455242	2.127372E-10
22.476507	2.127295E-10
22.497771	2.127295E-10
22.519036	2.127295E-10
22.540300	2.127303E-10
22.561565	2.127303E-10
22.582829	2.127266E-10
22.604094	2.127266E-10
22.625358	2.127266E-10
22.646622	2.127278E-10
22.667887	2.127278E-10
22.689151	2.127293E-10
22.710416	2.127293E-10
22.731680	2.127293E-10
22.752945	2.127240E-10
22.774209	2.127240E-10
22.795473	2.127285E-10
22.816738	2.127285E-10
22.838002	2.127285E-10
22.859267	2.127273E-10
22.880531	2.127273E-10
22.901796	2.127254E-10
22.923060	2.127254E-10
22.944324	2.127285E-10
22.965589	2.127285E-10
22.986853	2.127285E-10
23.008118	2.127218E-10
23.029382	2.127218E-10
23.050647	2.127296E-10
23.071911	2.127296E-10
23.093176	2.127296E-10
23.114440	2.127255E-10
23.135704	2.127255E-10
23.156969	2.127255E-10
23.178233	2.127389E-10
23.199498	2.127389E-10
23.220762	2.127389E-10
23.242027	2.127299E-10
23.263291	2.127299E-10
23.284555	2.127245E-10
23.305820	2.127245E-10
23.327084	2.127245E-10
23.348349	2.127345E-10
23.369613	2.127345E-10
23.390878	2.127309E-10
23.412142	2.127309E-10
23.433406	2.127309E-10
23.454671	2.127256E-10
23.475935	2.127256E-10
23.497200	2.127247E-10
23.518464	2.127247E-10
23.539729	2.127247E-10
23.560993	2.127274E-10
23.582257	2.127274E-10
23.603522	2.127210E-10
23.624786	2.127210E-10
23.646051	2.127319E-10
23.667315	2.127319E-10
23.688580	2.127319E-10
23.709844	2.127291E-10
23.731109	2.127291E-10
23.752373	2.127291E-10
23.773637	2.127255E-10
23.794902	2.127255E-10
23.816166	2.127250E-10
23.837431	2.127250E-10
23.858695	2.127235E-10
23.879960	2.127235E-10
23.901224	2.127235E-10
23.922488	2.127213E-10
23.943753	2.127213E-10
23.965017	2.127301E-10
23.986282	2.127301E-10
24.007546	2.127301E-10
24.028811	2.127225E-10
24.050075	2.127225E-10
24.071339	2.127306E-10
24.092604	2.127306E-10
24.113868	2.127306E-10
24.135133	2.127293E-10
24.156397	2.127293E-10
24.177662	2.127279E-10
24.198926	2.127279E-10
24.220191	2.127274E-10
24.241455	2.127274E-10
24.262719	2.127274E-10
24.283984	2.127296E-10
24.305248	2.127296E-10
24.326513	2.127364E-10
24.347777	2.127364E-10
24.369042	2.127364E-10
24.390306	2.127313E-10
24.411570	2.127313E-10
24.432835	2.127331E-10
24.454099	2.127331E-10
24.475364	2.127331E-10
24.496628	2.127300E-10
24.517893	2.127300E-10
24.539157	2.127277E-10
24.560421	2.127277E-10
24.581686	2.127277E-10
24.602950	2.127334E-10
24.624215	2.127334E-10
24.645479	2.127310E-10
24.666744	2.127310E-10
24.688008	2.127310E-10
24.709273	2.127275E-10
24.730537	2.127275E-10
24.751801	2.127266E-10
24.773066	2.127266E-10
24.794330	2.127266E-10
24.815595	2.127236E-10
24.836859	2.127236E-10
24.858124	2.127236E-10
24.879388	2.127327E-10
24.900652	2.127327E-10
24.921917	2.127329E-10
24.943181	2.127329E-10
24.964446	2.127329E-10
24.985710	2.127256E-10
25.006975	2.127256E-10
25.028239	2.127316E-10
25.049503	2.127316E-10
25.070768	2.127342E-10
25.092032	2.127342E-10
25.113297	2.127342E-10
25.134561	2.127377E-10
25.155826	2.127377E-10
25.177090	2.127274E-10
25.198354	2.127274E-10
25.219619	2.127274E-10
25.240883	2.127298E-10
25.262148	2.127298E-10
25.283412	2.127267E-10
25.304677	2.127267E-10
25.325941	2.127267E-10
25.347206	2.127347E-10
25.368470	2.127347E-10
25.389734	2.127357E-10
25.410999	2.127357E-10
25.432263	2.127357E-10
25.453528	2.127345E-10
25.474792	2.127345E-10
25.496057	2.127305E-10
25.517321	2.127305E-10
25.538585	2.127305E-10
25.559850	2.127357E-10
25.581114	2.127357E-10
25.602379	2.127289E-10
25.623643	2.127289E-10
25.644908	2.127289E-10
25.666172	2.127261E-10
25.687436	2.127261E-10
25.708701	2.127324E-10
25.729965	2.127324E-10
25.751230	2.127324E-10
25.772494	2.127298E-10
25.793759	2.127298E-10
25.815023	2.127290E-10
25.836288	2.127290E-10
25.857552	2.127290E-10
25.878816	2.127277E-10
25.900081	2.127277E-10
25.921345	2.127301E-10
25.942610	2.127301E-10
25.963874	2.127301E-10
25.985139	2.127207E-10
26.006403	2.127207E-10
26.027667	2.127207E-10
26.048932	2.127280E-10
26.070196	2.127280E-10
26.091461	2.127244E-10
26.112725	2.127244E-10
26.133990	2.127244E-10
26.155254	2.127251E-10
26.176518	2.127251E-10
26.197783	2.127303E-10
26.219047	2.127303E-10
26.240312	2.127244E-10
26.261576	2.127244E-10
26.282841	2.127244E-10
26.304105	2.127246E-10
26.325369	2.127246E-10
26.346634	2.127282E-10
26.367898	2.127282E-10
26.389163	2.127282E-10
26.410427	2.127269E-10
26.431692	2.127269E-10
26.452956	2.127235E-10
26.474221	2.127235E-10
26.495485	2.127235E-10
26.516749	2.127239E-10
26.538014	2.127239E-10
26.559278	2.127206E-10
26.580543	2.127206E-10
26.601807	2.127206E-10
26.623072	2.127308E-10
26.644336	2.127308E-10
26.665600	2.127308E-10
26.686865	2.127303E-10
26.708129	2.127303E-10
26.729394	2.127303E-10
26.750658	2.127298E-10
26.771923	2.127298E-10
26.793187	2.127257E-10
26.814451	2.127257E-10
26.835716	2.127257E-10
26.856980	2.127304E-10
26.878245	2.127304E-10
26.899509	2.127312E-10
26.920774	2.127312E-10
26.942038	2.127312E-10
26.963303	2.127192E-10
26.984567	2.127192E-10
27.005831	2.127244E-10
27.027096	2.127244E-10
27.048360	2.127244E-10
27.069625	2.127257E-10
27.090889	2.127257E-10
27.112154	2.127220E-10
27.133418	2.127220E-10
27.154682	2.127220E-10
27.175947	2.127252E-10
27.197211	2.127252E-10
27.218476	2.127282E-10
27.239740	2.127282E-10
27.261005	2.127190E-10
27.282269	2.127190E-10
27.303533	2.127190E-10
27.324798	2.127258E-10
27.346062	2.127258E-10
27.367327	2.127258E-10
27.388591	2.127218E-10
27.409856	2.127218E-10
27.431120	2.127315E-10
27.452385	2.127315E-10
27.473649	2.127313E-10
27.494913	2.127313E-10
27.516178	2.127313E-10
27.537442	2.127306E-10
27.558707	2.127306E-10
27.579971	2.127346E-10
27.601236	2.127346E-10
27.622500	2.127346E-10
27.643764	2.127343E-10
27.665029	2.127343E-10
27.686293	2.127284E-10
27.707558	2.127284E-10
27.728822	2.127348E-10
27.750087	2.127348E-10
27.771351	2.127348E-10
27.792615	2.127329E-10
27.813880	2.127329E-10
27.835144	2.127281E-10
27.856409	2.127281E-10
27.877673	2.127281E-10
27.898938	2.127313E-10
27.920202	2.127313E-10
27.941466	2.127362E-10
27.962731	2.127362E-10
27.983995	2.127362E-10
28.005260	2.127319E-10
28.026524	2.127319E-10
28.047789	2.127293E-10
28.069053	2.127293E-10
28.090318	2.127290E-10
28.111582	2.127290E-10
28.132846	2.127269E-10
28.154111	2.127269E-10
28.175375	2.127269E-10
28.196640	2.127262E-10
28.217904	2.127262E-10
28.239169	2.127292E-10
28.260433	2.127292E-10
28.281697	2.127270E-10
28.302962	2.127270E-10
28.324226	2.127270E-10
28.345491	2.127355E-10
28.366755	2.127355E-10
28.388020	2.127278E-10
28.409284	2.127278E-10
28.430548	2.127278E-10
28.451813	2.127334E-10
28.473077	2.127334E-10
28.494342	2.127334E-10
28.515606	2.127334E-10
28.536871	2.127319E-10
28.558135	2.127319E-10
28.579400	2.127282E-10
28.600664	2.127282E-10
28.621928	2.127282E-10
28.643193	2.127260E-10
28.664457	2.127260E-10
28.685722	2.127362E-10
28.706986	2.127362E-10
28.728251	2.127362E-10
28.749515	2.127332E-10
28.770779	2.127332E-10
28.792044	2.127300E-10
28.813308	2.127300E-10
28.834573	2.127300E-10
28.855837	2.127331E-10
28.877102	2.127331E-10
28.898366	2.127355E-10
28.919630	2.127355E-10
28.940895	2.127239E-10
28.962159	2.127239E-10
28.983424	2.127244E-10
29.004688	2.127244E-10
29.025953	2.127244E-10
29.047217	2.127366E-10
29.068482	2.127366E-10
29.089746	2.127289E-10
29.111010	2.127289E-10
29.132275	2.127289E-10
29.153539	2.127259E-10
29.174804	2.127259E-10
29.196068	2.127270E-10
29.217333	2.127270E-10
29.238597	2.127270E-10
29.259861	2.127252E-10
29.281126	2.127252E-10
29.302390	2.127282E-10
29.323655	2.127282E-10
29.344919	2.127279E-10
29.366184	2.127279E-10
29.387448	2.127279E-10
29.408712	2.127149E-10
29.429977	2.127149E-10
29.451241	2.127258E-10
29.472506	2.127258E-10
29.493770	2.127258E-10
29.515035	2.127169E-10
29.536299	2.127169E-10
29.557563	2.127272E-10
29.578828	2.127272E-10
29.600092	2.127272E-10
29.621357	2.127342E-10
29.642621	2.127342E-10
29.663886	2.127280E-10
29.685150	2.127280E-10
29.706415	2.127280E-10
29.727679	2.127290E-10
29.748943	2.127290E-10
29.770208	2.127292E-10
29.791472	2.127292E-10
29.812737	2.127292E-10
29.834001	2.127315E-10
29.855266	2.127315E-10
29.876530	2.127208E-10
29.897794	2.127208E-10
29.919059	2.127208E-10
29.940323	2.127301E-10
29.961588	2.127301E-10
29.982852	2.127330E-10
30.004117	2.127330E-10
30.025381	2.127330E-10
30.046645	2.127345E-10
30.067910	2.127345E-10
30.089174	2.127353E-10
30.110439	2.127353E-10
30.131703	2.127332E-10
30.152968	2.127332E-10
30.174232	2.127332E-10
30.195497	2.127346E-10
30.216761	2.127346E-10
30.238025	2.127312E-10
30.259290	2.127312E-10
30.280554	2.127312E-10
30.301819	2.127307E-10
30.323083	2.127307E-10
30.344348	2.127307E-10
30.365612	2.127206E-10
30.386876	2.127206E-10
30.408141	2.127206E-10
30.429405	2.127264E-10
30.450670	2.127264E-10
30.471934	2.127207E-10
30.493199	2.127207E-10
30.514463	2.127207E-10
30.535727	2.127321E-10
30.556992	2.127321E-10
30.578256	2.127251E-10
30.599521	2.127251E-10
30.620785	2.127251E-10
30.642050	2.127216E-10
30.663314	2.127216E-10
30.684579	2.127216E-10
30.705843	2.127274E-10
30.727107	2.127274E-10
30.748372	2.127364E-10
30.769636	2.127364E-10
30.790901	2.127364E-10
30.812165	2.127220E-10
30.833430	2.127220E-10
30.854694	2.127347E-10
30.875958	2.127347E-10
30.897223	2.127347E-10
30.918487	2.127323E-10
30.939752	2.127323E-10
30.961016	2.127317E-10
30.982281	2.127317E-10
31.003545	2.127317E-10
31.024809	2.127371E-10
31.046074	2.127371E-10
31.067338	2.127299E-10
31.088603	2.127299E-10
31.109867	2.127347E-10
31.131132	2.127347E-10
31.152396	2.127347E-10
31.173660	2.127297E-10
31.194925	2.127297E-10
31.216189	2.127264E-10
31.237454	2.127264E-10
31.258718	2.127264E-10
31.279983	2.127324E-10
31.301247	2.127324E-10
31.322512	2.127282E-10
31.343776	2.127282E-10
31.365040	2.127282E-10
31.386305	2.127305E-10
31.407569	2.127305E-10
31.428834	2.127323E-10
31.450098	2.127323E-10
31.471363	2.127323E-10
31.492627	2.127303E-10
31.513891	2.127303E-10
31.535156	2.127314E-10
31.556420	2.127314E-10
31.577685	2.127314E-10
31.598949	2.127255E-10
31.620214	2.127255E-10
31.641478	2.127233E-10
31.662742	2.127233E-10
31.684007	2.127233E-10
31.705271	2.127288E-10
31.726536	2.127288E-10
31.747800	2.127272E-10
31.769065	2.127272E-10
31.790329	2.127272E-10
31.811594	2.127269E-10
31.832858	2.127269E-10
31.854122	2.127279E-10
31.875387	2.127279E-10
31.896651	2.127279E-10
31.917916	2.127255E-10
31.939180	2.127255E-10
31.960445	2.127203E-10
31.981709	2.127203E-10
32.002973	2.127203E-10
32.024238	2.127286E-10
32.045502	2.127286E-10
32.066767	2.127237E-10
32.088031	2.127237E-10
32.109296	2.127237E-10
32.130560	2.127179E-10
32.151824	2.127179E-10
32.173089	2.127310E-10
32.194353	2.127310E-10
32.215618	2.127310E-10
32.236882	2.127310E-10
32.258147	2.127276E-10
32.279411	2.127276E-10
32.300675	2.127276E-10
32.321940	2.127282E-10
32.343204	2.127282E-10
32.364469	2.127364E-10
32.385733	2.127364E-10
32.406998	2.127364E-10
32.428262	2.127242E-10
32.449527	2.127242E-10
32.470791	2.127215E-10
32.492055	2.127215E-10
32.513320	2.127215E-10
32.534584	2.127272E-10
32.555849	2.127272E-10
32.577113	2.127222E-10
32.598378	2.127222E-10
32.619642	2.127222E-10
32.640906	2.127259E-10
32.662171	2.127259E-10
32.683435	2.127305E-10
32.704700	2.127305E-10
32.725964	2.127203E-10
32.747229	2.127203E-10
32.768493	2.127203E-10
32.789757	2.127316E-10
32.811022	2.127316E-10
32.832286	2.127266E-10
32.853551	2.127266E-10
32.874815	2.127266E-10
32.896080	2.127204E-10
32.917344	2.127204E-10
32.938609	2.127293E-10
32.959873	2.127293E-10
32.981137	2.127293E-10
33.002402	2.127269E-10
33.023666	2.127269E-10
33.044931	2.127316E-10
33.066195	2.127316E-10
33.087460	2.127316E-10
33.108724	2.127361E-10
33.129988	2.127361E-10
33.151253	2.127331E-10
33.172517	2.127331E-10
33.193782	2.127331E-10
33.215046	2.127306E-10
33.236311	2.127306E-10
33.257575	2.127323E-10
33.278839	2.127323E-10
33.300104	2.127275E-10
33.321368	2.127275E-10
33.342633	2.127275E-10
33.363897	2.127291E-10
33.385162	2.127291E-10
33.406426	2.127286E-10
33.427691	2.127286E-10
33.448955	2.127286E-10
33.470219	2.127367E-10
33.491484	2.127367E-10
33.512748	2.127298E-10
33.534013	2.127298E-10
33.555277	2.127298E-10
33.576542	2.127326E-10
33.597806	2.127326E-10
33.619070	2.127313E-10
33.640335	2.127313E-10
33.661599	2.127300E-10
33.682864	2.127300E-10
33.704128	2.127300E-10
33.725393	2.127313E-10
33.746657	2.127313E-10
33.767921	2.127306E-10
33.789186	2.127306E-10
33.810450	2.127306E-10
33.831715	2.127303E-10
33.852979	2.127303E-10
33.874244	2.127339E-10
33.895508	2.127339E-10
33.916772	2.127277E-10
33.938037	2.127277E-10
33.959301	2.127277E-10
33.980566	2.127290E-10
34.001830	2.127290E-10
34.023095	2.127290E-10
34.044359	2.127355E-10
34.065624	2.127355E-10
34.086888	2.127355E-10
34.108152	2.127259E-10
34.129417	2.127259E-10
34.150681	2.127259E-10
34.171946	2.127277E-10
34.193210	2.127277E-10
34.214475	2.127283E-10
34.235739	2.127283E-10
34.257003	2.127283E-10
34.278268	2.127288E-10
34.299532	2.127288E-10
34.320797	2.127284E-10
34.342061	2.127284E-10
34.363326	2.127339E-10
34.384590	2.127339E-10
34.405854	2.127339E-10
34.427119	2.127379E-10
34.448383	2.127379E-10
34.469648	2.127320E-10
34.490912	2.127320E-10
34.512177	2.127323E-10
34.533441	2.127323E-10
34.554706	2.127323E-10
34.575970	2.127286E-10
34.597234	2.127286E-10
34.618499	2.127301E-10
34.639763	2.127301E-10
34.661028	2.127301E-10
34.682292	2.127259E-10
34.703557	2.127259E-10
34.724821	2.127305E-10
34.746085	2.127305E-10
34.767350	2.127203E-10
34.788614	2.127203E-10
34.809879	2.127203E-10
34.831143	2.127275E-10
34.852408	2.127275E-10
34.873672	2.127253E-10
34.894936	2.127253E-10
34.916201	2.127240E-10
34.937465	2.127240E-10
34.958730	2.127240E-10
34.979994	2.127245E-10
35.001259	2.127245E-10
35.022523	2.127242E-10
35.043788	2.127242E-10
35.065052	2.127242E-10
35.086316	2.127259E-10
35.107581	2.127259E-10
35.128845	2.127321E-10
35.150110	2.127321E-10
35.171374	2.127321E-10
35.192639	2.127240E-10
35.213903	2.127240E-10
35.235167	2.127258E-10
35.256432	2.127258E-10
35.277696	2.127258E-10
35.298961	2.127262E-10
35.320225	2.127262E-10
35.341490	2.127318E-10
35.362754	2.127318E-10
35.384018	2.127318E-10
35.405283	2.127267E-10
35.426547	2.127267E-10
35.447812	2.127279E-10
35.469076	2.127279E-10
35.490341	2.127279E-10
35.511605	2.127288E-10
35.532869	2.127288E-10
35.554134	2.127387E-10
35.575398	2.127387E-10
35.596663	2.127387E-10
35.617927	2.127311E-10
35.639192	2.127311E-10
35.660456	2.127268E-10
35.681721	2.127268E-10
35.702985	2.127365E-10
35.724249	2.127365E-10
35.745514	2.127365E-10
35.766778	2.127353E-10
35.788043	2.127353E-10
35.809307	2.127300E-10
35.830572	2.127300E-10
35.851836	2.127300E-10
35.873100	2.127243E-10
35.894365	2.127243E-10
35.915629	2.127243E-10
35.936894	2.127263E-10
35.958158	2.127263E-10
35.979423	2.127263E-10
36.000687	2.127255E-10
36.021951	2.127255E-10
36.043216	2.127284E-10
36.064480	2.127284E-10
36.085745	2.127284E-10
36.107009	2.127249E-10
36.128274	2.127249E-10
36.149538	2.127301E-10
36.170803	2.127301E-10
36.192067	2.127272E-10
36.213331	2.127272E-10
36.234596	2.127272E-10
36.255860	2.127283E-10
36.277125	2.127283E-10
36.298389	2.127279E-10
36.319654	2.127279E-10
36.340918	2.127279E-10
36.362182	2.127338E-10
36.383447	2.127338E-10
36.404711	2.127308E-10
36.425976	2.127308E-10
36.447240	2.127308E-10
36.468505	2.127272E-10
36.489769	2.127272E-10
36.511033	2.127287E-10
36.532298	2.127287E-10
36.553562	2.127287E-10
36.574827	2.127326E-10
36.596091	2.127326E-10
36.617356	2.127288E-10
36.638620	2.127288E-10
36.659885	2.127288E-10
36.681149	2.127307E-10
36.702413	2.127307E-10
36.723678	2.127305E-10
36.744942	2.127305E-10
36.766207	2.127305E-10
36.787471	2.127315E-10
36.808736	2.127315E-10
36.830000	2.127310E-10
36.851264	2.127310E-10
36.872529	2.127310E-10
36.893793	2.127289E-10
36.915058	2.127289E-10
36.936322	2.127345E-10
36.957587	2.127345E-10
36.978851	2.127306E-10
37.000115	2.127306E-10
37.021380	2.127306E-10
37.042644	2.127236E-10
37.063909	2.127236E-10
37.085173	2.127248E-10
37.106438	2.127248E-10
37.127702	2.127248E-10
37.148966	2.127262E-10
37.170231	2.127262E-10
37.191495	2.127317E-10
37.212760	2.127317E-10
37.234024	2.127317E-10
37.255289	2.127283E-10
37.276553	2.127283E-10
37.297818	2.127263E-10
37.319082	2.127263E-10
37.340346	2.127261E-10
37.361611	2.127261E-10
37.382875	2.127295E-10
37.404140	2.127295E-10
37.425404	2.127295E-10
37.446669	2.127260E-10
37.467933	2.127260E-10
37.489197	2.127260E-10
37.510462	2.127267E-10
37.531726	2.127267E-10
37.552991	2.127232E-10
37.574255	2.127232E-10
37.595520	2.127241E-10
37.616784	2.127241E-10
37.638048	2.127241E-10
37.659313	2.127289E-10
37.680577	2.127289E-10
37.701842	2.127293E-10
37.723106	2.127293E-10
37.744371	2.127293E-10
37.765635	2.127281E-10
37.786900	2.127281E-10
37.808164	2.127281E-10
37.829428	2.127249E-10
37.850693	2.127249E-10
37.871957	2.127290E-10
37.893222	2.127290E-10
37.914486	2.127290E-10
37.935751	2.127309E-10
37.957015	2.127309E-10
37.978279	2.127308E-10
37.999544	2.127308E-10
38.020808	2.127286E-10
38.042073	2.127286E-10
38.063337	2.127286E-10
38.084602	2.127267E-10
38.105866	2.127267E-10
38.127130	2.127303E-10
38.148395	2.127303E-10
38.169659	2.127303E-10
38.190924	2.127193E-10
38.212188	2.127193E-10
38.233453	2.127263E-10
38.254717	2.127263E-10
38.275982	2.127263E-10
38.297246	2.127278E-10
38.318510	2.127278E-10
38.339775	2.127244E-10
38.361039	2.127244E-10
38.382304	2.127244E-10
38.403568	2.127307E-10
38.424833	2.127307E-10
38.446097	2.127240E-10
38.467361	2.127240E-10
38.488626	2.127240E-10
38.509890	2.127290E-10
38.531155	2.127290E-10
38.552419	2.127298E-10
38.573684	2.127298E-10
38.594948	2.127228E-10
38.616212	2.127228E-10
38.637477	2.127228E-10
38.658741	2.127335E-10
38.680006	2.127335E-10
38.701270	2.127272E-10
38.722535	2.127272E-10
38.743799	2.127317E-10
38.765063	2.127317E-10
38.786328	2.127317E-10
38.807592	2.127317E-10
38.828857	2.127317E-10
38.850121	2.127336E-10
38.871386	2.127336E-10
38.892650	2.127336E-10
38.913915	2.127308E-10
38.935179	2.127308E-10
38.956443	2.127292E-10
38.977708	2.127292E-10
38.998972	2.127392E-10
39.020237	2.127392E-10
39.041501	2.127392E-10
39.062766	2.127376E-10
39.084030	2.127376E-10
39.105294	2.127223E-10
39.126559	2.127223E-10
39.147823	2.127223E-10
39.169088	2.127371E-10
39.190352	2.127371E-10
39.211617	2.127350E-10
39.232881	2.127350E-10
39.254145	2.127350E-10
39.275410	2.127348E-10
39.296674	2.127348E-10
39.317939	2.127331E-10
39.339203	2.127331E-10
39.360468	2.127331E-10
39.381732	2.127331E-10
39.402997	2.127255E-10
39.424261	2.127255E-10
39.445525	2.127255E-10
39.466790	2.127269E-10
39.488054	2.127269E-10
39.509319	2.127360E-10
39.530583	2.127360E-10
39.551848	2.127360E-10
39.573112	2.127346E-10
39.594376	2.127346E-10
39.615641	2.127278E-10
39.636905	2.127278E-10
39.658170	2.127283E-10
39.679434	2.127283E-10
39.700699	2.127283E-10
39.721963	2.127306E-10
39.743227	2.127306E-10
39.764492	2.127351E-10
39.785756	2.127351E-10
39.807021	2.127351E-10
39.828285	2.127336E-10
39.849550	2.127336E-10
39.870814	2.127313E-10
39.892078	2.127313E-10
39.913343	2.127313E-10
39.934607	2.127329E-10
39.955872	2.127329E-10
39.977136	2.127300E-10
39.998401	2.127300E-10
40.019665	2.127300E-10
40.040930	2.127279E-10
40.062194	2.127279E-10
40.083458	2.127336E-10
40.104723	2.127336E-10
40.125987	2.127336E-10
40.147252	2.127252E-10
40.168516	2.127252E-10
40.189781	2.127300E-10
40.211045	2.127300E-10
40.232309	2.127300E-10
40.253574	2.127352E-10
40.274838	2.127352E-10
40.296103	2.127336E-10
40.317367	2.127336E-10
40.338632	2.127336E-10
40.359896	2.127346E-10
40.381160	2.127346E-10
40.402425	2.127329E-10
40.423689	2.127329E-10
40.444954	2.127363E-10
40.466218	2.127363E-10
40.487483	2.127363E-10
40.508747	2.127269E-10
40.530012	2.127269E-10
40.551276	2.127296E-10
40.572540	2.127296E-10
40.593805	2.127296E-10
40.615069	2.127331E-10
40.636334	2.127331E-10
40.657598	2.127239E-10
40.678863	2.127239E-10
40.700127	2.127239E-10
40.721391	2.127312E-10
40.742656	2.127312E-10
40.763920	2.127252E-10
40.785185	2.127252E-10
40.806449	2.127248E-10
40.827714	2.127248E-10
40.848978	2.127248E-10
40.870242	2.127250E-10
40.891507	2.127250E-10
40.912771	2.127297E-10
40.934036	2.127297E-10
40.955300	2.127255E-10
40.976565	2.127255E-10
40.997829	2.127255E-10
41.019094	2.127232E-10
41.040358	2.127232E-10
41.061622	2.127266E-10
41.082887	2.127266E-10
41.104151	2.127266E-10
41.125416	2.127317E-10
41.146680	2.127317E-10
41.167945	2.127249E-10
41.189209	2.127249E-10
41.210473	2.127249E-10
41.231738	2.127282E-10
41.253002	2.127282E-10
41.274267	2.127282E-10
41.295531	2.127307E-10
41.316796	2.127307E-10
41.338060	2.127312E-10
41.359324	2.127312E-10
41.380589	2.127312E-10
41.401853	2.127301E-10
41.423118	2.127301E-10
41.444382	2.127283E-10
41.465647	2.127283E-10
41.486911	2.127218E-10
41.508175	2.127218E-10
41.529440	2.127218E-10
41.550704	2.127321E-10
41.571969	2.127321E-10
41.593233	2.127358E-10
41.614498	2.127358E-10
41.635762	2.127358E-10
41.657027	2.127303E-10
41.678291	2.127303E-10
41.699555	2.127265E-10
41.720820	2.127265E-10
41.742084	2.127265E-10
41.763349	2.127286E-10
41.784613	2.127286E-10
41.805878	2.127265E-10
41.827142	2.127265E-10
41.848406	2.127295E-10
41.869671	2.127295E-10
41.890935	2.127295E-10
41.912200	2.127238E-10
41.933464	2.127238E-10
41.954729	2.127289E-10
41.975993	2.127289E-10
41.997257	2.127289E-10
42.018522	2.127302E-10
42.039786	2.127302E-10
42.061051	2.127369E-10
42.082315	2.127369E-10
42.103580	2.127369E-10
42.124844	2.127238E-10
42.146109	2.127238E-10
42.167373	2.127299E-10
42.188637	2.127299E-10
42.209902	2.127299E-10
42.231166	2.127281E-10
42.252431	2.127281E-10
42.273695	2.127329E-10
42.294960	2.127329E-10
42.316224	2.127329E-10
42.337488	2.127208E-10
42.358753	2.127208E-10
42.380017	2.127328E-10
42.401282	2.127328E-10
42.422546	2.127305E-10
42.443811	2.127305E-10
42.465075	2.127312E-10
42.486339	2.127312E-10
42.507604	2.127312E-10
42.528868	2.127326E-10
42.550133	2.127326E-10
42.571397	2.127301E-10
42.592662	2.127301E-10
42.613926	2.127301E-10
42.635191	2.127332E-10
42.656455	2.127332E-10
42.677719	2.127273E-10
42.698984	2.127273E-10
42.720248	2.127273E-10
42.741513	2.127306E-10
42.762777	2.127306E-10
42.784042	2.127313E-10
42.805306	2.127313E-10
42.826570	2.127335E-10
42.847835	2.127335E-10
42.869099	2.127335E-10
42.890364	2.127342E-10
42.911628	2.127342E-10
42.932893	2.127304E-10
42.954157	2.127304E-10
42.975421	2.127304E-10
42.996686	2.127274E-10
43.017950	2.127274E-10
43.039215	2.127274E-10
43.060479	2.127240E-10
43.081744	2.127240E-10
43.103008	2.127240E-10
43.124272	2.127281E-10
43.145537	2.127281E-10
43.166801	2.127234E-10
43.188066	2.127234E-10
43.209330	2.127234E-10
43.230595	2.127241E-10
43.251859	2.127241E-10
43.273124	2.127326E-10
43.294388	2.127326E-10
43.315652	2.127295E-10
43.336917	2.127295E-10
43.358181	2.127295E-10
43.379446	2.127322E-10
43.400710	2.127322E-10
43.421975	2.127310E-10
43.443239	2.127310E-10
43.464503	2.127310E-10
43.485768	2.127300E-10
43.507032	2.127300E-10
43.528297	2.127308E-10
43.549561	2.127308E-10
43.570826	2.127348E-10
43.592090	2.127348E-10
43.613354	2.127348E-10
43.634619	2.127287E-10
43.655883	2.127287E-10
43.677148	2.127324E-10
43.698412	2.127324E-10
43.719677	2.127324E-10
43.740941	2.127362E-10
43.762206	2.127362E-10
43.783470	2.127309E-10
43.804734	2.127309E-10
43.825999	2.127309E-10
43.847263	2.127362E-10
43.868528	2.127362E-10
43.889792	2.127316E-10
43.911057	2.127316E-10
43.932321	2.127331E-10
43.953585	2.127331E-10
43.974850	2.127331E-10
43.996114	2.127346E-10
44.017379	2.127346E-10
44.038643	2.127286E-10
44.059908	2.127286E-10
44.081172	2.127347E-10
44.102436	2.127347E-10
44.123701	2.127347E-10
44.144965	2.127298E-10
44.166230	2.127298E-10
44.187494	2.127265E-10
44.208759	2.127265E-10
44.230023	2.127265E-10
44.251288	2.127452E-10
44.272552	2.127452E-10
44.293816	2.127294E-10
44.315081	2.127294E-10
44.336345	2.127294E-10
44.357610	2.127239E-10
44.378874	2.127239E-10
44.400139	2.127255E-10
44.421403	2.127255E-10
44.442667	2.127277E-10
44.463932	2.127277E-10
44.485196	2.127277E-10
44.506461	2.127309E-10
44.527725	2.127309E-10
44.548990	2.127251E-10
44.570254	2.127251E-10
44.591518	2.127251E-10
44.612783	2.127288E-10
44.634047	2.127288E-10
44.655312	2.127329E-10
44.676576	2.127329E-10
44.697841	2.127317E-10
44.719105	2.127317E-10
44.740369	2.127317E-10
44.761634	2.127278E-10
44.782898	2.127278E-10
44.804163	2.127278E-10
44.825427	2.127278E-10
44.846692	2.127278E-10
44.867956	2.127278E-10
44.889221	2.127329E-10
44.910485	2.127329E-10
44.931749	2.127284E-10
44.953014	2.127284E-10
44.974278	2.127284E-10
44.995543	2.127294E-10
45.016807	2.127294E-10
45.038072	2.127357E-10
45.059336	2.127357E-10
45.080600	2.127357E-10
45.101865	2.127328E-10
45.123129	2.127328E-10
45.144394	2.127369E-10
45.165658	2.127369E-10
45.186923	2.127369E-10
45.208187	2.127341E-10
45.229451	2.127341E-10
45.250716	2.127338E-10
45.271980	2.127338E-10
45.293245	2.127338E-10
45.314509	2.127275E-10
45.335774	2.127275E-10
45.357038	2.127329E-10
45.378303	2.127329E-10
45.399567	2.127288E-10
45.420831	2.127288E-10
45.442096	2.127288E-10
45.463360	2.127290E-10
45.484625	2.127290E-10
45.505889	2.127270E-10
45.527154	2.127270E-10
45.548418	2.127354E-10
45.569682	2.127354E-10
45.590947	2.127354E-10
45.612211	2.127331E-10
45.633476	2.127331E-10
45.654740	2.127319E-10
45.676005	2.127319E-10
45.697269	2.127319E-10
45.718533	2.127249E-10
45.739798	2.127249E-10
45.761062	2.127385E-10
45.782327	2.127385E-10
45.803591	2.127385E-10
45.824856	2.127245E-10
45.846120	2.127245E-10
45.867384	2.127297E-10
45.888649	2.127297E-10
45.909913	2.127337E-10
45.931178	2.127337E-10
45.952442	2.127337E-10
45.973707	2.127268E-10
45.994971	2.127268E-10
46.016236	2.127305E-10
46.037500	2.127305E-10
46.058764	2.127305E-10
46.080029	2.127282E-10
46.101293	2.127282E-10
46.122558	2.127320E-10
46.143822	2.127320E-10
46.165087	2.127320E-10
46.186351	2.127196E-10
46.207615	2.127196E-10
46.228880	2.127285E-10
46.250144	2.127285E-10
46.271409	2.127249E-10
46.292673	2.127249E-10
46.313938	2.127309E-10
46.335202	2.127309E-10
46.356466	2.127309E-10
46.377731	2.127354E-10
46.398995	2.127354E-10
46.420260	2.127338E-10
46.441524	2.127338E-10
46.462789	2.127338E-10
46.484053	2.127338E-10
46.505318	2.127385E-10
46.526582	2.127385E-10
46.547846	2.127376E-10
46.569111	2.127376E-10
46.590375	2.127376E-10
46.611640	2.127286E-10
46.632904	2.127286E-10
46.654169	2.127350E-10
46.675433	2.127350E-10
46.696697	2.127350E-10
46.717962	2.127260E-10
46.739226	2.127260E-10
46.760491	2.127313E-10
46.781755	2.127313E-10
46.803020	2.127313E-10
46.824284	2.127338E-10
46.845548	2.127338E-10
46.866813	2.127380E-10
46.888077	2.127380E-10
46.909342	2.127380E-10
46.930606	2.127353E-10
46.951871	2.127353E-10
46.973135	2.127349E-10
46.994400	2.127349E-10
47.015664	2.127372E-10
47.036928	2.127372E-10
47.058193	2.127372E-10
47.079457	2.127297E-10
47.100722	2.127297E-10
47.121986	2.127356E-10
47.143251	2.127356E-10
47.164515	2.127355E-10
47.185779	2.127355E-10
47.207044	2.127355E-10
47.228308	2.127324E-10
47.249573	2.127324E-10
47.270837	2.127410E-10
47.292102	2.127410E-10
47.313366	2.127410E-10
47.334630	2.127344E-10
47.355895	2.127344E-10
47.377159	2.127391E-10
47.398424	2.127391E-10
47.419688	2.127391E-10
47.440953	2.127400E-10
47.462217	2.127400E-10
47.483481	2.127323E-10
47.504746	2.127323E-10
47.526010	2.127352E-10
47.547275	2.127352E-10
47.568539	2.127352E-10
47.589804	2.127347E-10
47.611068	2.127347E-10
47.632333	2.127294E-10
47.653597	2.127294E-10
47.674861	2.127294E-10
47.696126	2.127383E-10
47.717390	2.127383E-10
47.738655	2.127370E-10
47.759919	2.127370E-10
47.781184	2.127370E-10
47.802448	2.127368E-10
47.823712	2.127368E-10
47.844977	2.127329E-10
47.866241	2.127329E-10
47.887506	2.127377E-10
47.908770	2.127377E-10
47.930035	2.127377E-10
47.951299	2.127356E-10
47.972563	2.127356E-10
47.993828	2.127362E-10
48.015092	2.127362E-10
48.036357	2.127362E-10
48.057621	2.127403E-10
48.078886	2.127403E-10
48.100150	2.127416E-10
48.121415	2.127416E-10
48.142679	2.127416E-10
48.163943	2.127353E-10
48.185208	2.127353E-10
48.206472	2.127429E-10
48.227737	2.127429E-10
48.249001	2.127355E-10
48.270266	2.127355E-10
48.291530	2.127355E-10
48.312794	2.127355E-10
48.334059	2.127391E-10
48.355323	2.127391E-10
48.376588	2.127391E-10
48.397852	2.127368E-10
48.419117	2.127368E-10
48.440381	2.127360E-10
48.461645	2.127360E-10
48.482910	2.127349E-10
48.504174	2.127349E-10
48.525439	2.127349E-10
48.546703	2.127281E-10
48.567968	2.127281E-10
48.589232	2.127304E-10
48.610497	2.127304E-10
48.631761	2.127304E-10
48.653025	2.127349E-10
48.674290	2.127349E-10
48.695554	2.127297E-10
48.716819	2.127297E-10
48.738083	2.127297E-10
48.759348	2.127387E-10
48.780612	2.127387E-10
48.801876	2.127398E-10
48.823141	2.127398E-10
48.844405	2.127339E-10
48.865670	2.127339E-10
48.886934	2.127339E-10
48.908199	2.127293E-10
48.929463	2.127293E-10
48.950727	2.127322E-10
48.971992	2.127322E-10
48.993256	2.127328E-10
49.014521	2.127328E-10
49.035785	2.127328E-10
49.057050	2.127304E-10
49.078314	2.127304E-10
49.099578	2.127376E-10
49.120843	2.127376E-10
49.142107	2.127376E-10
49.163372	2.127402E-10
49.184636	2.127402E-10
49.205901	2.127385E-10
49.227165	2.127385E-10
49.248430	2.127385E-10
49.269694	2.127373E-10
49.290958	2.127373E-10
49.312223	2.127409E-10
49.333487	2.127409E-10
49.354752	2.127336E-10
49.376016	2.127336E-10
49.397281	2.127336E-10
49.418545	2.127369E-10
49.439809	2.127369E-10
49.461074	2.127343E-10
49.482338	2.127343E-10
49.503603	2.127343E-10
49.524867	2.127386E-10
49.546132	2.127386E-10
49.567396	2.127378E-10
49.588660	2.127378E-10
49.609925	2.127381E-10
49.631189	2.127381E-10
49.652454	2.127381E-10
49.673718	2.127372E-10
49.694983	2.127372E-10
49.716247	2.127399E-10
49.737512	2.127399E-10
49.758776	2.127399E-10
49.780040	2.127360E-10
49.801305	2.127360E-10
49.822569	2.127332E-10
49.843834	2.127332E-10
49.865098	2.127332E-10
49.886363	2.127337E-10
49.907627	2.127337E-10
49.928891	2.127337E-10
49.950156	2.127302E-10
49.971420	2.127302E-10
49.992685	2.127302E-10
50.013949	2.127368E-10
50.035214	2.127368E-10
50.056478	2.127337E-10
50.077742	2.127337E-10
50.099007	2.127337E-10
50.120271	2.127300E-10
50.141536	2.127300E-10
50.162800	2.127352E-10
50.184065	2.127352E-10
50.205329	2.127314E-10
50.226594	2.127314E-10
50.247858	2.127314E-10
50.269122	2.127321E-10
50.290387	2.127321E-10
50.311651	2.127353E-10
50.332916	2.127353E-10
50.354180	2.127353E-10
50.375445	2.127309E-10
50.396709	2.127309E-10
50.417973	2.127373E-10
50.439238	2.127373E-10
50.460502	2.127349E-10
50.481767	2.127349E-10
50.503031	2.127349E-10
50.524296	2.127325E-10
50.545560	2.127325E-10
50.566824	2.127400E-10
50.588089	2.127400E-10
50.609353	2.127400E-10
50.630618	2.127382E-10
50.651882	2.127382E-10
50.673147	2.127342E-10
50.694411	2.127342E-10
50.715675	2.127342E-10
50.736940	2.127421E-10
50.758204	2.127421E-10
50.779469	2.127345E-10
50.800733	2.127345E-10
50.821998	2.127396E-10
50.843262	2.127396E-10
50.864527	2.127396E-10
50.885791	2.127359E-10
50.907055	2.127359E-10
50.928320	2.127395E-10
50.949584	2.127395E-10
50.970849	2.127417E-10
50.992113	2.127417E-10
51.013378	2.127417E-10
51.034642	2.127434E-10
51.055906	2.127434E-10
51.077171	2.127431E-10
51.098435	2.127431E-10
51.119700	2.127431E-10
51.140964	2.127357E-10
51.162229	2.127357E-10
51.183493	2.127364E-10
51.204757	2.127364E-10
51.226022	2.127364E-10
51.247286	2.127375E-10
51.268551	2.127375E-10
51.289815	2.127293E-10
51.311080	2.127293E-10
51.332344	2.127423E-10
51.353609	2.127423E-10
51.374873	2.127423E-10
51.396137	2.127316E-10
51.417402	2.127316E-10
51.438666	2.127302E-10
51.459931	2.127302E-10
51.481195	2.127302E-10
51.502460	2.127431E-10
51.523724	2.127431E-10
51.544988	2.127386E-10
51.566253	2.127386E-10
51.587517	2.127379E-10
51.608782	2.127379E-10
51.630046	2.127379E-10
51.651311	2.127340E-10
51.672575	2.127340E-10
51.693839	2.127338E-10
51.715104	2.127338E-10
51.736368	2.127338E-10
51.757633	2.127338E-10
51.778897	2.127310E-10
51.800162	2.127310E-10
51.821426	2.127328E-10
51.842690	2.127328E-10
51.863955	2.127344E-10
51.885219	2.127344E-10
51.906484	2.127344E-10
51.927748	2.127418E-10
51.949013	2.127418E-10
51.970277	2.127330E-10
51.991542	2.127330E-10
52.012806	2.127330E-10
52.034070	2.127359E-10
52.055335	2.127359E-10
52.076599	2.127363E-10
52.097864	2.127363E-10
52.119128	2.127363E-10
52.140393	2.127322E-10
52.161657	2.127322E-10
52.182921	2.127322E-10
52.204186	2.127358E-10
52.225450	2.127358E-10
52.246715	2.127340E-10
52.267979	2.127340E-10
52.289244	2.127340E-10
52.310508	2.127347E-10
52.331772	2.127347E-10
52.353037	2.127416E-10
52.374301	2.127416E-10
52.395566	2.127372E-10
52.416830	2.127372E-10
52.438095	2.127320E-10
52.459359	2.127320E-10
52.480624	2.127320E-10
52.501888	2.127401E-10
52.523152	2.127401E-10
52.544417	2.127338E-10
52.565681	2.127338E-10
52.586946	2.127361E-10
52.608210	2.127361E-10
52.629475	2.127361E-10
52.650739	2.127345E-10
52.672003	2.127345E-10
52.693268	2.127315E-10
52.714532	2.127315E-10
52.735797	2.127315E-10
52.757061	2.127350E-10
52.778326	2.127350E-10
52.799590	2.127346E-10
52.820854	2.127346E-10
52.842119	2.127346E-10
52.863383	2.127401E-10
52.884648	2.127401E-10
52.905912	2.127380E-10
52.927177	2.127380E-10
52.948441	2.127380E-10
52.969706	2.127358E-10
52.990970	2.127358E-10
53.012234	2.127386E-10
53.033499	2.127386E-10
53.054763	2.127319E-10
53.076028	2.127319E-10
53.097292	2.127319E-10
53.118557	2.127321E-10
53.139821	2.127321E-10
53.161085	2.127339E-10
53.182350	2.127339E-10
53.203614	2.127339E-10
53.224879	2.127340E-10
53.246143	2.127340E-10
53.267408	2.127402E-10
53.288672	2.127402E-10
53.309936	2.127402E-10
53.331201	2.127402E-10
53.352465	2.127413E-10
53.373730	2.127413E-10
53.394994	2.127413E-10
53.416259	2.127338E-10
53.437523	2.127338E-10
53.458787	2.127401E-10
53.480052	2.127401E-10
53.501316	2.127401E-10
53.522581	2.127310E-10
53.543845	2.127310E-10
53.565110	2.127310E-10
53.586374	2.127338E-10
53.607639	2.127338E-10
53.628903	2.127338E-10
53.650167	2.127307E-10
53.671432	2.127307E-10
53.692696	2.127378E-10
53.713961	2.127378E-10
53.735225	2.127378E-10
53.756490	2.127295E-10
53.777754	2.127295E-10
53.799018	2.127372E-10
53.820283	2.127372E-10
53.841547	2.127372E-10
53.862812	2.127404E-10
53.884076	2.127404E-10
53.905341	2.127423E-10
53.926605	2.127423E-10
53.947869	2.127423E-10
53.969134	2.127322E-10
53.990398	2.127322E-10
54.011663	2.127284E-10
54.032927	2.127284E-10
54.054192	2.127371E-10
54.075456	2.127371E-10
54.096721	2.127371E-10
54.117985	2.127323E-10
54.139249	2.127323E-10
54.160514	2.127291E-10
54.181778	2.127291E-10
54.203043	2.127291E-10
54.224307	2.127382E-10
54.245572	2.127382E-10
54.266836	2.127212E-10
54.288100	2.127212E-10
54.309365	2.127212E-10
54.330629	2.127387E-10
54.351894	2.127387E-10
54.373158	2.127413E-10
54.394423	2.127413E-10
54.415687	2.127333E-10
54.436951	2.127333E-10
54.458216	2.127333E-10
54.479480	2.127396E-10
54.500745	2.127396E-10
54.522009	2.127363E-10
54.543274	2.127363E-10
54.564538	2.127363E-10
54.585803	2.127244E-10
54.607067	2.127244E-10
54.628331	2.127407E-10
54.649596	2.127407E-10
54.670860	2.127351E-10
54.692125	2.127351E-10
54.713389	2.127415E-10
54.734654	2.127415E-10
54.755918	2.127415E-10
54.777182	2.127523E-10
54.798447	2.127523E-10
54.819711	2.127377E-10
54.840976	2.127377E-10
54.862240	2.127377E-10
54.883505	2.127373E-10
54.904769	2.127373E-10
54.926033	2.127403E-10
54.947298	2.127403E-10
54.968562	2.127252E-10
54.989827	2.127252E-10
55.011091	2.127337E-10
55.032356	2.127337E-10
55.053620	2.127337E-10
55.074884	2.127329E-10
55.096149	2.127329E-10
55.117413	2.127281E-10
55.138678	2.127281E-10
55.159942	2.127281E-10
55.181207	2.127369E-10
55.202471	2.127369E-10
55.223736	2.127357E-10
55.245000	2.127357E-10
55.266264	2.127357E-10
55.287529	2.127374E-10
55.308793	2.127374E-10
55.330058	2.127414E-10
55.351322	2.127414E-10
55.372587	2.127414E-10
55.393851	2.127414E-10
55.415115	2.127221E-10
55.436380	2.127221E-10
55.457644	2.127262E-10
55.478909	2.127262E-10
55.500173	2.127315E-10
55.521438	2.127315E-10
55.542702	2.127315E-10
55.563966	2.127202E-10
55.585231	2.127202E-10
55.606495	2.127214E-10
55.627760	2.127214E-10
55.649024	2.127214E-10
55.670289	2.127346E-10
55.691553	2.127346E-10
55.712818	2.127261E-10
55.734082	2.127261E-10
55.755346	2.127261E-10
55.776611	2.127315E-10
55.797875	2.127315E-10
55.819140	2.127351E-10
55.840404	2.127351E-10
55.861669	2.127332E-10
55.882933	2.127332E-10
55.904197	2.127332E-10
55.925462	2.127246E-10
55.946726	2.127246E-10
55.967991	2.127335E-10
55.989255	2.127335E-10
56.010520	2.127335E-10
56.031784	2.127362E-10
56.053048	2.127362E-10
56.074313	2.127338E-10
56.095577	2.127338E-10
56.116842	2.127338E-10
56.138106	2.127399E-10
56.159371	2.127399E-10
56.180635	2.127340E-10
56.201900	2.127340E-10
56.223164	2.127439E-10
56.244428	2.127439E-10
56.265693	2.127409E-10
56.286957	2.127409E-10
56.308222	2.127409E-10
56.329486	2.127312E-10
56.350751	2.127312E-10
56.372015	2.127279E-10
56.393279	2.127279E-10
56.414544	2.127364E-10
56.435808	2.127364E-10
56.457073	2.127364E-10
56.478337	2.127372E-10
56.499602	2.127372E-10
56.520866	2.127390E-10
56.542130	2.127390E-10
56.563395	2.127390E-10
56.584659	2.127400E-10
56.605924	2.127400E-10
56.627188	2.127371E-10
56.648453	2.127371E-10
56.669717	2.127371E-10
56.690981	2.127348E-10
56.712246	2.127348E-10
56.733510	2.127488E-10
56.754775	2.127488E-10
56.776039	2.127417E-10
56.797304	2.127417E-10
56.818568	2.127417E-10
56.839833	2.127435E-10
56.861097	2.127435E-10
56.882361	2.127377E-10
56.903626	2.127377E-10
56.924890	2.127377E-10
56.946155	2.127289E-10
56.967419	2.127289E-10
56.988684	2.127289E-10
57.009948	2.127331E-10
57.031212	2.127331E-10
57.052477	2.127331E-10
57.073741	2.127217E-10
57.095006	2.127217E-10
57.116270	2.127389E-10
57.137535	2.127389E-10
57.158799	2.127389E-10
57.180063	2.127312E-10
57.201328	2.127312E-10
57.222592	2.127325E-10
57.243857	2.127325E-10
57.265121	2.127325E-10
57.286386	2.127298E-10
57.307650	2.127298E-10
57.328915	2.127312E-10
57.350179	2.127312E-10
57.371443	2.127312E-10
57.392708	2.127217E-10
57.413972	2.127217E-10
57.435237	2.127225E-10
57.456501	2.127225E-10
57.477766	2.127234E-10
57.499030	2.127234E-10
57.520294	2.127234E-10
57.541559	2.127227E-10
